File: XRD_scan_data/Al2O3_Mesh 150 (75 to 106 microns)_1.xy
'Id: "" Comment: "" Operator: "Lab Manager" Anode: "Co" Scantype: "Coupled TwoTheta/Theta" TimePerStep: "38.4"
10 4.24479
10.4431 4.34896
10.8862 4.73958
11.3293 5.05208
11.7725 4.29687
12.2156 4.79167
12.6587 5.39062
13.1018 5.23437
13.5449 5.33854
13.988 5.625
14.4311 5.33854
14.8742 5.23437
15.3174 5.15625
15.7605 5.18229
16.2036 4.01042
16.6467 4.21875
17.0898 4.55729
17.5329 4.21875
17.976 3.59375
18.4191 3.33333
18.8623 3.41146
19.3054 2.60417
19.7485 2.5
20.1916 2.8125
20.6347 2.44792
21.0778 2.03125
21.5209 2.47396
21.964 1.64062
22.4072 1.5625
22.8503 1.11979
23.2934 1.5625
23.7365 1.17187
24.1796 0.833333
24.6227 1.27604
25.0658 1.01562
25.509 0.78125
25.9521 0.963542
26.3952 0.729167
26.8383 0.520833
27.2814 0.677083
27.7245 0.859375
28.1676 0.625
28.6107 0.885417
29.0539 6.95312
29.497 1.22396
29.9401 0.494792
30.3832 0.703125
30.8263 0.598958
31.2694 0.520833
31.7125 0.651042
32.1556 0.625
32.5988 0.494792
33.0419 0.598958
33.485 0.442708
33.9281 0.651042
34.3712 0.572917
34.8143 0.260417
35.2574 0.286458
35.7005 0.390625
36.1437 0.46875
36.5868 0.625
37.0299 0.390625
37.473 0.46875
37.9161 0.546875
38.3592 2.03125
38.8023 0.286458
39.2455 0.46875
39.6886 0.416667
40.1317 0.520833
40.5748 9.84375
41.0179 0.442708
41.461 0.572917
41.9041 0.442708
42.3472 0.677083
42.7904 0.390625
43.2335 0.520833
43.6766 10.4687
44.1197 0.286458
44.5628 0.390625
45.0059 0.442708
45.449 0.15625
45.8921 0.338542
46.3353 0.885417
46.7784 0.729167
47.2215 0.520833
47.6646 0.260417
48.1077 0.234375
48.5508 0.104167
48.9939 1.04167
49.437 0.442708
49.8802 0.46875
50.3233 36.1719
50.7664 0.677083
51.2095 0.520833
51.6526 0.651042
52.0957 0.338542
52.5388 0.338542
52.982 0.364583
53.4251 0.338542
53.8682 0.364583
54.3113 1.30208
54.7544 0.260417
55.1975 0.442708
55.6406 0.260417
56.0837 0.286458
56.5269 0.286458
56.97 0.208333
57.4131 0.234375
57.8562 0.3125
58.2993 0.260417
58.7424 0.104167
59.1855 0.15625
59.6286 0.15625
60.0718 0.182292
60.5149 0.3125
60.958 0.546875
61.4011 16.8229
61.8442 0.416667
62.2873 0.15625
62.7304 0.286458
63.1735 0.208333
63.6167 0.286458
64.0598 0.208333
64.5029 0.260417
64.946 0.546875
65.3891 0.364583
65.8322 0.15625
66.2753 0.182292
66.7185 0.729167
67.1616 1.25
67.6047 23.75
68.0478 0.494792
68.4909 0.364583
68.934 0.572917
69.3771 0.286458
69.8202 0.364583
70.2634 1.06771
70.7065 0.46875
71.1496 0.3125
71.5927 0.286458
72.0358 2.03125
72.4789 0.364583
72.922 0.234375
73.3651 0.130208
73.8083 0.208333
74.2514 0.208333
74.6945 0.104167
75.1376 0.208333
75.5807 0.286458
76.0238 0.260417
76.4669 0.234375
76.91 0.364583
77.3532 0.286458
77.7963 0.416667
78.2394 1.74479
78.6825 17.3177
79.1256 0.885417
79.5687 0.338542
80.0118 0.208333
80.455 0.729167
80.8981 3.98437
81.3412 0.208333
81.7843 0.572917
82.2274 0.3125
82.6705 0.3125
83.1136 0.364583
83.5567 0.46875
83.9999 0.208333
84.443 0.234375
84.8861 0.234375
85.3292 0.15625
85.7723 0.078125
86.2154 0.286458
86.6585 0.182292
87.1016 0.182292
87.5448 0.260417
87.9879 0.364583
88.431 0.260417
88.8741 0.625
89.3172 0.416667
89.7603 0.442708
90.2034 0.390625
90.6465 0.208333
91.0897 0.338542
91.5328 0.338542
91.9759 2.60417
92.419 2.05729
92.8621 0.729167
93.3052 0.286458
93.7483 0.286458
94.1915 0.625
94.6346 0.416667
95.0777 0.442708
95.5208 0.364583
95.9639 0.286458
96.407 0.416667
96.8501 0.546875
97.2932 0.677083
97.7364 0.364583
98.1795 0.182292
98.6226 0.234375
99.0657 0.260417
99.5088 0.208333
99.9519 0.260417
100.395 0.364583
100.838 0.572917
101.281 0.260417
101.724 0.234375
102.167 1.64062
102.611 0.338542
103.054 0.442708
103.497 0.46875
103.94 0.338542
104.383 0.15625
104.826 2.21354
105.269 1.25
105.712 0.3125
106.155 0.46875
106.599 0.390625
107.042 0.208333
107.485 0.208333
107.928 0.46875
108.371 0.442708
108.814 0.546875
109.257 0.338542
109.7 0.130208
110.144 0.338542
110.587 0.442708
111.03 0.598958
111.473 0.807292
111.916 1.35417
112.359 0.807292
112.802 0.364583
113.245 0.364583
113.688 0.364583
114.132 0.364583
114.575 0.208333
115.018 0.338542
115.461 0.260417
115.904 0.546875
116.347 0.46875
116.79 0.494792
117.233 0.572917
117.676 1.30208
118.12 1.66667
118.563 0.546875
119.006 0.338542
119.449 0.416667
119.892 0.234375
120.335 0.286458
120.778 0.260417
121.221 0.286458
121.664 0.442708
122.108 0.234375
122.551 0.755208
122.994 0.546875
123.437 0.390625
123.88 0.3125
124.323 0.442708
124.766 0.3125
125.209 0.46875
125.652 0.286458
126.096 0.338542
126.539 0.46875
126.982 1.51042
127.425 1.11979
127.868 1.14583
128.311 0.416667
128.754 0.338542
129.197 0.442708
129.64 0.520833
130.084 0.546875
130.527 0.260417
130.97 1.69271
131.413 0.442708
131.856 0.442708
132.299 0.442708
132.742 0.364583
133.185 0.338542
133.628 0.3125
134.072 0.416667
134.515 0.416667
134.958 0.442708
135.401 0.260417
135.844 0.546875
136.287 0.598958
136.73 0.390625
137.173 0.364583
137.617 0.364583
138.06 0.364583
138.503 0.3125
138.946 0.338542
139.389 0.364583
139.832 0.416667
139.997 0.390625