File: XRD_scan_data/Al2O3_Mesh 600 (10 to 14 microns)_1.xy
'Id: "" Comment: "" Operator: "Lab Manager" Anode: "Co" Scantype: "Coupled TwoTheta/Theta" TimePerStep: "38.4"
10 1.61458
10.4431 1.32812
10.8862 1.30208
11.3293 1.58854
11.7725 1.48437
12.2156 1.19792
12.6587 1.17187
13.1018 1.30208
13.5449 0.963542
13.988 0.78125
14.4311 1.11979
14.8742 1.32812
15.3174 1.14583
15.7605 0.963542
16.2036 0.859375
16.6467 1.06771
17.0898 1.32812
17.5329 0.911458
17.976 1.01562
18.4191 1.06771
18.8623 0.651042
19.3054 0.677083
19.7485 1.04167
20.1916 0.807292
20.6347 0.729167
21.0778 0.651042
21.5209 0.442708
21.964 0.46875
22.4072 0.807292
22.8503 0.833333
23.2934 0.598958
23.7365 0.78125
24.1796 0.703125
24.6227 0.729167
25.0658 0.703125
25.509 0.442708
25.9521 0.390625
26.3952 0.598958
26.8383 0.677083
27.2814 0.442708
27.7245 0.416667
28.1676 0.520833
28.6107 0.416667
29.0539 0.677083
29.497 1.74479
29.9401 3.04687
30.3832 0.46875
30.8263 0.494792
31.2694 0.3125
31.7125 0.520833
32.1556 0.416667
32.5988 0.46875
33.0419 0.364583
33.485 0.182292
33.9281 0.390625
34.3712 0.520833
34.8143 0.3125
35.2574 0.390625
35.7005 0.416667
36.1437 0.3125
36.5868 0.260417
37.0299 0.625
37.473 0.260417
37.9161 0.234375
38.3592 0.390625
38.8023 1.25
39.2455 0.3125
39.6886 0.390625
40.1317 0.442708
40.5748 0.859375
41.0179 81.5104
41.461 0.885417
41.9041 0.520833
42.3472 0.598958
42.7904 0.416667
43.2335 0.520833
43.6766 0.546875
44.1197 42.8385
44.5628 0.598958
45.0059 0.625
45.449 0.234375
45.8921 0.260417
46.3353 0.520833
46.7784 0.78125
47.2215 0.546875
47.6646 0.130208
48.1077 0.416667
48.5508 0.234375
48.9939 0.286458
49.437 0.833333
49.8802 0.390625
50.3233 0.885417
50.7664 85.7552
51.2095 1.19792
51.6526 0.703125
52.0957 0.416667
52.5388 0.182292
52.982 0.286458
53.4251 0.494792
53.8682 0.572917
54.3113 0.494792
54.7544 0.364583
55.1975 0.3125
55.6406 0.260417
56.0837 0.338542
56.5269 0.286458
56.97 0.364583
57.4131 0.182292
57.8562 0.208333
58.2993 0.260417
58.7424 0.390625
59.1855 0.338542
59.6286 0.234375
60.0718 0.3125
60.5149 0.208333
60.958 0.364583
61.4011 0.807292
61.8442 31.3542
62.2873 0.963542
62.7304 0.46875
63.1735 0.520833
63.6167 0.364583
64.0598 0.3125
64.5029 0.338542
64.946 0.286458
65.3891 0.520833
65.8322 0.182292
66.2753 0.364583
66.7185 0.3125
67.1616 0.859375
67.6047 2.99479
68.0478 32.8385
68.4909 1.17187
68.934 0.572917
69.3771 0.755208
69.8202 0.416667
70.2634 0.546875
70.7065 1.04167
71.1496 0.46875
71.5927 0.416667
72.0358 0.677083
72.4789 2.47396
72.922 0.598958
73.3651 0.286458
73.8083 0.104167
74.2514 0.234375
74.6945 0.286458
75.1376 0.182292
75.5807 0.390625
76.0238 0.234375
76.4669 0.364583
76.91 0.286458
77.3532 0.182292
77.7963 0.3125
78.2394 0.546875
78.6825 0.859375
79.1256 14.6094
79.5687 1.48437
80.0118 0.520833
80.455 0.390625
80.8981 2.29167
81.3412 13.3073
81.7843 1.61458
82.2274 0.885417
82.6705 0.651042
83.1136 0.546875
83.5567 0.46875
83.9999 0.911458
84.443 0.338542
84.8861 0.46875
85.3292 0.286458
85.7723 0.260417
86.2154 0.494792
86.6585 0.286458
87.1016 0.208333
87.5448 0.338542
87.9879 0.208333
88.431 0.234375
88.8741 0.364583
89.3172 0.625
89.7603 0.260417
90.2034 0.3125
90.6465 0.260417
91.0897 0.234375
91.5328 0.260417
91.9759 0.651042
92.419 8.59375
92.8621 5.07812
93.3052 0.703125
93.7483 0.234375
94.1915 0.3125
94.6346 0.130208
95.0777 0.234375
95.5208 0.494792
95.9639 0.182292
96.407 0.234375
96.8501 0.520833
97.2932 1.11979
97.7364 2.03125
98.1795 0.234375
98.6226 0.390625
99.0657 0.416667
99.5088 0.364583
99.9519 0.364583
100.395 0.286458
100.838 0.677083
101.281 0.494792
101.724 0.572917
102.167 0.494792
102.611 1.27604
103.054 0.46875
103.497 0.338542
103.94 0.442708
104.383 0.338542
104.826 0.364583
105.269 2.26562
105.712 1.17187
106.155 0.625
106.599 0.338542
107.042 0.3125
107.485 0.3125
107.928 0.416667
108.371 0.260417
108.814 1.35417
109.257 2.44792
109.7 0.46875
110.144 0.364583
110.587 0.208333
111.03 0.46875
111.473 1.17187
111.916 1.84896
112.359 2.1875
112.802 0.755208
113.245 0.598958
113.688 0.494792
114.132 0.390625
114.575 0.338542
115.018 0.286458
115.461 0.494792
115.904 0.390625
116.347 0.286458
116.79 0.442708
117.233 0.572917
117.676 0.911458
118.12 11.5625
118.563 6.53646
119.006 0.859375
119.449 0.390625
119.892 0.416667
120.335 0.338542
120.778 0.390625
121.221 0.3125
121.664 0.234375
122.108 0.494792
122.551 0.625
122.994 1.58854
123.437 0.963542
123.88 0.703125
124.323 0.572917
124.766 0.3125
125.209 0.546875
125.652 0.234375
126.096 0.390625
126.539 0.677083
126.982 1.09375
127.425 7.60417
127.868 4.60937
128.311 1.14583
128.754 0.46875
129.197 0.572917
129.64 0.494792
130.084 0.416667
130.527 0.546875
130.97 0.9375
131.413 0.78125
131.856 1.17187
132.299 0.390625
132.742 0.3125
133.185 0.338542
133.628 0.625
134.072 0.286458
134.515 0.46875
134.958 0.625
135.401 0.46875
135.844 0.442708
136.287 0.442708
136.73 0.442708
137.173 0.520833
137.617 0.3125
138.06 0.3125
138.503 0.390625
138.946 0.46875
139.389 0.494792
139.832 0.3125
139.997 0.260417