File: XRD_scan_data/Al2O3_Mesh 180 (63 to 90 microns)_2.xy
'Id: "" Comment: "" Operator: "Lab Manager" Anode: "Co" Scantype: "Coupled TwoTheta/Theta" TimePerStep: "38.4"
10 1.27604
10.4431 1.11979
10.8862 1.17187
11.3293 1.17187
11.7725 0.911458
12.2156 1.06771
12.6587 1.09375
13.1018 1.43229
13.5449 1.06771
13.988 1.04167
14.4311 0.651042
14.8742 1.04167
15.3174 0.9375
15.7605 0.833333
16.2036 0.833333
16.6467 0.9375
17.0898 0.651042
17.5329 0.78125
17.976 0.9375
18.4191 0.677083
18.8623 0.572917
19.3054 0.807292
19.7485 0.572917
20.1916 0.677083
20.6347 0.338542
21.0778 0.677083
21.5209 0.703125
21.964 0.572917
22.4072 0.546875
22.8503 0.46875
23.2934 0.46875
23.7365 0.755208
24.1796 0.677083
24.6227 0.494792
25.0658 0.598958
25.509 0.520833
25.9521 0.46875
26.3952 0.416667
26.8383 0.546875
27.2814 0.703125
27.7245 0.416667
28.1676 0.260417
28.6107 0.3125
29.0539 0.572917
29.497 0.78125
29.9401 0.885417
30.3832 0.3125
30.8263 0.416667
31.2694 0.338542
31.7125 0.390625
32.1556 0.338542
32.5988 0.338542
33.0419 0.234375
33.485 0.338542
33.9281 0.390625
34.3712 0.390625
34.8143 0.520833
35.2574 0.260417
35.7005 0.15625
36.1437 0.15625
36.5868 0.260417
37.0299 0.234375
37.473 0.338542
37.9161 0.364583
38.3592 0.364583
38.8023 1.32812
39.2455 0.364583
39.6886 0.364583
40.1317 0.416667
40.5748 0.46875
41.0179 49.375
41.461 0.520833
41.9041 0.494792
42.3472 0.46875
42.7904 0.390625
43.2335 0.3125
43.6766 0.442708
44.1197 22.0052
44.5628 0.364583
45.0059 0.260417
45.449 0.390625
45.8921 0.260417
46.3353 0.338542
46.7784 0.859375
47.2215 0.3125
47.6646 0.364583
48.1077 0.15625
48.5508 0.182292
48.9939 0.208333
49.437 0.520833
49.8802 0.234375
50.3233 0.520833
50.7664 16.4062
51.2095 0.364583
51.6526 0.260417
52.0957 0.494792
52.5388 0.3125
52.982 0.182292
53.4251 0.130208
53.8682 0.3125
54.3113 0.416667
54.7544 0.494792
55.1975 0.234375
55.6406 0.182292
56.0837 0.182292
56.5269 0.234375
56.97 0.286458
57.4131 0.15625
57.8562 0.182292
58.2993 0.46875
58.7424 0.15625
59.1855 0.260417
59.6286 0.104167
60.0718 0.208333
60.5149 0.234375
60.958 0.208333
61.4011 0.364583
61.8442 7.42187
62.2873 0.46875
62.7304 0.234375
63.1735 0.15625
63.6167 0.208333
64.0598 0.234375
64.5029 0.182292
64.946 0.15625
65.3891 0.703125
65.8322 0.130208
66.2753 0.338542
66.7185 0.3125
67.1616 0.46875
67.6047 1.27604
68.0478 13.2292
68.4909 0.338542
68.934 0.286458
69.3771 0.598958
69.8202 0.442708
70.2634 0.364583
70.7065 0.598958
71.1496 0.208333
71.5927 0.208333
72.0358 0.182292
72.4789 1.95312
72.922 0.390625
73.3651 0.3125
73.8083 0.260417
74.2514 0.182292
74.6945 0.15625
75.1376 0.130208
75.5807 0.104167
76.0238 0.182292
76.4669 0.208333
76.91 0.182292
77.3532 0.182292
77.7963 0.286458
78.2394 0.390625
78.6825 0.651042
79.1256 3.67187
79.5687 0.520833
80.0118 0.338542
80.455 0.416667
80.8981 1.09375
81.3412 10.0781
81.7843 0.677083
82.2274 0.286458
82.6705 0.416667
83.1136 0.260417
83.5567 0.364583
83.9999 1.27604
84.443 0.3125
84.8861 0.182292
85.3292 0.260417
85.7723 0.234375
86.2154 0.3125
86.6585 0.234375
87.1016 0.104167
87.5448 0.208333
87.9879 0.364583
88.431 0.286458
88.8741 0.338542
89.3172 0.78125
89.7603 0.286458
90.2034 0.3125
90.6465 0.15625
91.0897 0.390625
91.5328 0.3125
91.9759 0.364583
92.419 2.13542
92.8621 4.60937
93.3052 0.364583
93.7483 0.208333
94.1915 0.494792
94.6346 0.234375
95.0777 0.338542
95.5208 0.15625
95.9639 0.15625
96.407 0.286458
96.8501 0.234375
97.2932 0.729167
97.7364 1.58854
98.1795 0.182292
98.6226 0.208333
99.0657 0.260417
99.5088 0.364583
99.9519 0.15625
100.395 0.234375
100.838 0.520833
101.281 0.390625
101.724 0.286458
102.167 0.286458
102.611 0.572917
103.054 0.15625
103.497 0.260417
103.94 0.364583
104.383 0.286458
104.826 0.364583
105.269 1.17187
105.712 1.35417
106.155 0.15625
106.599 0.260417
107.042 0.130208
107.485 0.442708
107.928 0.182292
108.371 0.3125
108.814 1.19792
109.257 3.28125
109.7 0.182292
110.144 0.208333
110.587 0.234375
111.03 0.182292
111.473 0.703125
111.916 0.807292
112.359 1.22396
112.802 0.208333
113.245 0.390625
113.688 0.286458
114.132 0.3125
114.575 0.15625
115.018 0.234375
115.461 0.390625
115.904 0.260417
116.347 0.338542
116.79 0.286458
117.233 0.390625
117.676 0.677083
118.12 9.47917
118.563 3.64583
119.006 0.46875
119.449 0.234375
119.892 0.234375
120.335 0.3125
120.778 0.390625
121.221 0.208333
121.664 0.390625
122.108 0.390625
122.551 0.494792
122.994 2.00521
123.437 1.19792
123.88 0.338542
124.323 0.234375
124.766 0.208333
125.209 0.3125
125.652 0.390625
126.096 0.494792
126.539 0.338542
126.982 0.520833
127.425 6.45833
127.868 4.14062
128.311 0.520833
128.754 0.338542
129.197 0.3125
129.64 0.286458
130.084 0.442708
130.527 0.234375
130.97 0.494792
131.413 0.651042
131.856 0.729167
132.299 0.390625
132.742 0.260417
133.185 0.416667
133.628 0.390625
134.072 0.364583
134.515 0.390625
134.958 0.390625
135.401 0.260417
135.844 0.442708
136.287 0.546875
136.73 0.390625
137.173 0.234375
137.617 0.364583
138.06 0.390625
138.503 0.390625
138.946 0.546875
139.389 0.208333
139.832 0.442708
139.997 0.3125