File: XRD_scan_data/Al2O3_Mesh 320 (40 to 50 microns)_1.xy
'Id: "" Comment: "" Operator: "Lab Manager" Anode: "Co" Scantype: "Coupled TwoTheta/Theta" TimePerStep: "38.4"
10 1.69271
10.4431 1.40625
10.8862 1.30208
11.3293 1.40625
11.7725 1.32812
12.2156 1.40625
12.6587 1.64062
13.1018 1.64062
13.5449 1.01562
13.988 1.17187
14.4311 1.01562
14.8742 1.01562
15.3174 0.9375
15.7605 1.04167
16.2036 1.04167
16.6467 0.963542
17.0898 0.963542
17.5329 0.703125
17.976 1.22396
18.4191 0.989583
18.8623 0.989583
19.3054 0.729167
19.7485 1.04167
20.1916 0.677083
20.6347 0.78125
21.0778 0.651042
21.5209 0.885417
21.964 0.651042
22.4072 0.416667
22.8503 0.703125
23.2934 0.286458
23.7365 0.598958
24.1796 0.677083
24.6227 0.520833
25.0658 0.46875
25.509 0.546875
25.9521 0.625
26.3952 0.286458
26.8383 0.677083
27.2814 0.598958
27.7245 0.625
28.1676 0.364583
28.6107 0.364583
29.0539 0.625
29.497 0.963542
29.9401 1.19792
30.3832 0.833333
30.8263 0.416667
31.2694 0.546875
31.7125 0.260417
32.1556 0.546875
32.5988 0.364583
33.0419 0.286458
33.485 0.390625
33.9281 0.3125
34.3712 0.182292
34.8143 0.442708
35.2574 0.3125
35.7005 0.416667
36.1437 0.208333
36.5868 0.364583
37.0299 0.625
37.473 0.520833
37.9161 0.390625
38.3592 0.390625
38.8023 1.09375
39.2455 0.338542
39.6886 0.46875
40.1317 0.234375
40.5748 0.625
41.0179 35.8073
41.461 0.78125
41.9041 0.625
42.3472 0.3125
42.7904 0.651042
43.2335 0.260417
43.6766 0.286458
44.1197 26.875
44.5628 0.46875
45.0059 0.442708
45.449 0.46875
45.8921 0.234375
46.3353 0.46875
46.7784 0.390625
47.2215 0.442708
47.6646 0.364583
48.1077 0.260417
48.5508 0.338542
48.9939 0.208333
49.437 0.677083
49.8802 0.546875
50.3233 1.11979
50.7664 44.5833
51.2095 0.703125
51.6526 0.390625
52.0957 0.338542
52.5388 0.442708
52.982 0.390625
53.4251 0.208333
53.8682 0.390625
54.3113 0.416667
54.7544 0.46875
55.1975 0.260417
55.6406 0.286458
56.0837 0.286458
56.5269 0.3125
56.97 0.15625
57.4131 0.15625
57.8562 0.130208
58.2993 0.208333
58.7424 0.15625
59.1855 0.208333
59.6286 0.260417
60.0718 0.208333
60.5149 0.260417
60.958 0.208333
61.4011 0.286458
61.8442 17.8385
62.2873 0.625
62.7304 0.364583
63.1735 0.234375
63.6167 0.260417
64.0598 0.260417
64.5029 0.078125
64.946 0.208333
65.3891 0.286458
65.8322 0.15625
66.2753 0.182292
66.7185 0.234375
67.1616 0.677083
67.6047 1.90104
68.0478 18.6198
68.4909 0.520833
68.934 0.442708
69.3771 0.703125
69.8202 0.208333
70.2634 0.3125
70.7065 0.989583
71.1496 0.182292
71.5927 0.208333
72.0358 0.729167
72.4789 2.73437
72.922 0.546875
73.3651 0.260417
73.8083 0.416667
74.2514 0.286458
74.6945 0.208333
75.1376 0.364583
75.5807 0.234375
76.0238 0.130208
76.4669 0.416667
76.91 0.208333
77.3532 0.364583
77.7963 0.260417
78.2394 0.286458
78.6825 0.807292
79.1256 8.51562
79.5687 1.17187
80.0118 0.520833
80.455 0.390625
80.8981 1.61458
81.3412 10.8073
81.7843 0.859375
82.2274 0.494792
82.6705 0.3125
83.1136 0.390625
83.5567 0.338542
83.9999 1.35417
84.443 0.338542
84.8861 0.234375
85.3292 0.364583
85.7723 0.390625
86.2154 0.364583
86.6585 0.3125
87.1016 0.260417
87.5448 0.260417
87.9879 0.338542
88.431 0.208333
88.8741 0.494792
89.3172 0.390625
89.7603 0.390625
90.2034 0.286458
90.6465 0.416667
91.0897 0.364583
91.5328 0.208333
91.9759 0.46875
92.419 5.67708
92.8621 5.07812
93.3052 0.442708
93.7483 0.182292
94.1915 0.182292
94.6346 0.208333
95.0777 0.338542
95.5208 0.390625
95.9639 0.442708
96.407 0.15625
96.8501 0.546875
97.2932 0.807292
97.7364 2.68229
98.1795 0.286458
98.6226 0.3125
99.0657 0.078125
99.5088 0.260417
99.9519 0.494792
100.395 0.234375
100.838 0.703125
101.281 0.416667
101.724 0.286458
102.167 0.572917
102.611 1.04167
103.054 0.3125
103.497 0.546875
103.94 0.390625
104.383 0.364583
104.826 0.416667
105.269 1.61458
105.712 1.11979
106.155 0.338542
106.599 0.234375
107.042 0.338542
107.485 0.3125
107.928 0.338542
108.371 0.260417
108.814 1.48437
109.257 2.68229
109.7 0.3125
110.144 0.286458
110.587 0.3125
111.03 0.364583
111.473 0.911458
111.916 1.875
112.359 2.03125
112.802 0.416667
113.245 0.416667
113.688 0.15625
114.132 0.208333
114.575 0.286458
115.018 0.520833
115.461 0.364583
115.904 0.416667
116.347 0.442708
116.79 0.338542
117.233 0.494792
117.676 1.01562
118.12 12.7344
118.563 4.47917
119.006 0.677083
119.449 0.416667
119.892 0.3125
120.335 0.338542
120.778 0.286458
121.221 0.416667
121.664 0.390625
122.108 0.3125
122.551 0.286458
122.994 2.73437
123.437 1.43229
123.88 0.416667
124.323 0.338542
124.766 0.260417
125.209 0.494792
125.652 0.442708
126.096 0.494792
126.539 0.625
126.982 0.78125
127.425 8.07292
127.868 4.92187
128.311 0.546875
128.754 0.416667
129.197 0.494792
129.64 0.364583
130.084 0.46875
130.527 0.46875
130.97 0.755208
131.413 0.78125
131.856 0.755208
132.299 0.442708
132.742 0.338542
133.185 0.442708
133.628 0.598958
134.072 0.416667
134.515 0.364583
134.958 0.677083
135.401 0.208333
135.844 0.442708
136.287 0.494792
136.73 0.442708
137.173 0.651042
137.617 0.3125
138.06 0.364583
138.503 0.260417
138.946 0.546875
139.389 0.390625
139.832 0.494792
139.997 0.494792